Time sep (ms?), Current (A)
0.0, -4.432e-08
2.002, -4.417e-08
4.004, -4.233e-08
6.006, -4.382e-08
8.008, -4.111e-08
10.01, -4.089e-08
12.012, -4.153e-08
14.014, -4.28e-08
16.016, -4.417e-08
18.018, -3.969e-08
20.02, -4.227e-08
22.022, -4.375e-08
24.024, -4.207e-08
26.026, -4.359e-08
28.028, -4.086e-08
30.03, -4.381e-08
32.032, -4.244e-08
34.034, -4.691e-08
36.036, -4.307e-08
38.038, -4.364e-08
40.04, -4.027e-08
42.042, -4.059e-08
44.044, -4.021e-08
46.046, -3.836e-08
48.048, -4.143e-08
50.05, -4.011e-08
52.052, -3.85e-08
54.054, -3.886e-08
56.056, -3.806e-08
58.058, -4.118e-08
60.06, -3.797e-08
62.062, -4.195e-08
64.064, -4.128e-08
66.066, -4.166e-08
68.068, -4.247e-08
70.07, -4.303e-08
72.072, -4.33e-08
74.074, -4.537e-08
76.076, -4.53e-08
78.078, -4.353e-08
80.08, -4.501e-08
82.082, -4.532e-08
84.084, -4.401e-08
86.086, -4.23e-08
88.088, -4.098e-08
90.09, -4.276e-08
92.092, -4.283e-08
94.094, -4.442e-08
96.096, -3.953e-08
98.098, -4.182e-08
100.1, -4.141e-08
102.1, -4.329e-08
104.1, -3.957e-08
106.11, -4.02e-08
108.11, -4.265e-08
110.11, -3.839e-08
112.11, -3.994e-08
114.11, -4.282e-08
116.12, -4.423e-08
118.12, -4.721e-08
120.12, -4.605e-08
122.12, -4.16e-08
124.12, -3.758e-08
126.13, -4.169e-08
128.13, -3.829e-08
130.13, -4.172e-08
132.13, -4.005e-08
134.13, -3.993e-08
136.14, -4.156e-08
138.14, -3.861e-08
140.14, -4.299e-08
142.14, -4.441e-08
144.14, -4.365e-08
146.15, -4.413e-08
148.15, -4.06e-08
150.15, -4.667e-08
152.15, -3.772e-08
154.15, -4.474e-08
156.16, -4.292e-08
158.16, -4.06e-08
160.16, -4.267e-08
162.16, -4.39e-08
164.16, -4.673e-08
166.17, -4.525e-08
168.17, -4.696e-08
170.17, -4.385e-08
172.17, -4.379e-08
174.17, -4.701e-08
176.18, -4.386e-08
178.18, -4.284e-08
180.18, -4.454e-08
182.18, -4.279e-08
184.18, -4.57e-08
186.19, -4.135e-08
188.19, -4.259e-08
190.19, -4.099e-08
192.19, -4.347e-08
194.19, -4.26e-08
196.2, -4.112e-08
198.2, -3.953e-08
200.2, -4.316e-08
202.2, -4.194e-08
204.2, -4.045e-08
206.21, -4.05e-08
208.21, -4.374e-08
210.21, -3.814e-08
212.21, -4.109e-08
214.21, -4.032e-08
216.22, -4.058e-08
218.22, -4.218e-08
220.22, -4.227e-08
222.22, -3.971e-08
224.22, -3.844e-08
226.23, -4.085e-08
228.23, -3.856e-08
230.23, -4.283e-08
232.23, -3.992e-08
234.23, -4.243e-08
236.24, -4.18e-08
238.24, -4.501e-08
240.24, -4.346e-08
242.24, -4.211e-08
244.24, -4.025e-08
246.25, -4.178e-08
248.25, -4.057e-08
250.25, -3.721e-08
252.25, -3.818e-08
254.25, -3.888e-08
256.26, -3.889e-08
258.26, -3.784e-08
260.26, -3.893e-08
262.26, -4.238e-08
264.26, -4.066e-08
266.27, -3.977e-08
268.27, -4.04e-08
270.27, -4.093e-08
272.27, -4.129e-08
274.27, -3.982e-08
276.28, -3.793e-08
278.28, -3.667e-08
280.28, -3.856e-08
282.28, -4.02e-08
284.28, -4.635e-08
286.29, -4.209e-08
288.29, -4.236e-08
290.29, -3.77e-08
292.29, -4.212e-08
294.29, -3.994e-08
296.3, -4.051e-08
298.3, -3.777e-08
300.3, -3.909e-08
302.3, -3.833e-08
304.3, -4.111e-08
306.31, -4.418e-08
308.31, -3.999e-08
310.31, -4.337e-08
312.31, -4.29e-08
314.31, -4.372e-08
316.32, -4.154e-08
318.32, -4.065e-08
320.32, -3.905e-08
322.32, -3.956e-08
324.32, -4.325e-08
326.33, -4.377e-08
328.33, -4.067e-08
330.33, -4.523e-08
332.33, -4.495e-08
334.33, -4.263e-08
336.34, -4.083e-08
338.34, -4.293e-08
340.34, -4.43e-08
342.34, -4.444e-08
344.34, -4.481e-08
346.35, -4.452e-08
348.35, -4.511e-08
350.35, -4.374e-08
352.35, -4.594e-08
354.35, -4.497e-08
356.36, -4.571e-08
358.36, -4.585e-08
360.36, -4.391e-08
362.36, -4.422e-08
364.36, -4.446e-08
366.37, -4.188e-08
368.37, -4.402e-08
370.37, -4.319e-08
372.37, -4.329e-08
374.37, -4.501e-08
376.38, -4.551e-08
378.38, -4.448e-08
380.38, -4.18e-08
382.38, -4.219e-08
384.38, -4.182e-08
386.39, -4.637e-08
388.39, -4.332e-08
390.39, -4.76e-08
392.39, -4.395e-08
394.39, -4.481e-08
396.4, -4.603e-08
398.4, -4.599e-08
400.4, -4.385e-08
402.4, -4.311e-08
404.4, -4.311e-08
406.41, -4.011e-08
408.41, -4.088e-08
410.41, -4.321e-08
412.41, -4.018e-08
414.41, -4.116e-08
416.42, -4.293e-08
418.42, -4.205e-08
420.42, -4.418e-08
422.42, -4.425e-08
424.42, -4.051e-08
426.43, -4.178e-08
428.43, -3.872e-08
430.43, -4.342e-08
432.43, -3.891e-08
434.43, -3.991e-08
436.44, -3.928e-08
438.44, -4.214e-08
440.44, -4.034e-08
442.44, -4.395e-08
444.44, -4.143e-08
446.45, -4.253e-08
448.45, -4.366e-08
450.45, -3.806e-08
452.45, -4.221e-08
454.45, -4.416e-08
456.46, -4.154e-08
458.46, -4.415e-08
460.46, -4.256e-08
462.46, -4.181e-08
464.46, -3.912e-08
466.47, -4.027e-08
468.47, -3.882e-08
470.47, -4.106e-08
472.47, -4.352e-08
474.47, -4.205e-08
476.48, -3.895e-08
478.48, -4.437e-08
480.48, -4.529e-08
482.48, -3.99e-08
484.48, -4.439e-08
486.49, -4.238e-08
488.49, -4.308e-08
490.49, -4.256e-08
492.49, -4.462e-08
494.49, -4.401e-08
496.5, -4.143e-08
498.5, -4.061e-08
500.5, -4.223e-08
502.5, -4.187e-08
504.5, -4.125e-08
506.51, -4.21e-08
508.51, -4.161e-08
510.51, -3.984e-08
512.51, -3.816e-08
514.51, -3.861e-08
516.52, -3.975e-08
518.52, -3.772e-08
520.52, -4.263e-08
522.52, -4.213e-08
524.52, -4.127e-08
526.53, -3.85e-08
528.53, -4.076e-08
530.53, -4.136e-08
532.53, -4.299e-08
534.53, -3.962e-08
536.54, -4.407e-08
538.54, -4.262e-08
540.54, -4.56e-08
542.54, -4.394e-08
544.54, -4.402e-08
546.55, -4.138e-08
548.55, -4.121e-08
550.55, -4.343e-08
552.55, -4.497e-08
554.55, -4.386e-08
556.56, -4.208e-08
558.56, -4.583e-08
560.56, -4.163e-08
562.56, -4.187e-08
564.56, -4.207e-08
566.57, -4.292e-08
568.57, -4.256e-08
570.57, -4.531e-08
572.57, -4.28e-08
574.57, -4.626e-08
576.58, -4.328e-08
578.58, -4.176e-08
580.58, -4.349e-08
582.58, -4.353e-08
584.58, -4.741e-08
586.59, -4.592e-08
588.59, -4.221e-08
590.59, -4.556e-08
592.59, -4.46e-08
594.59, -4.299e-08
596.6, -4.484e-08
598.6, -4.619e-08
600.6, -4.254e-08
602.6, -4.428e-08
604.6, -4.377e-08
606.61, -4.601e-08
608.61, -4.477e-08
610.61, -4.326e-08
612.61, -4.156e-08
614.61, -4.018e-08
616.62, -4.505e-08
618.62, -4.338e-08
620.62, -4.32e-08
622.62, -4.321e-08
624.62, -4.19e-08
626.63, -4.322e-08
628.63, -4.373e-08
630.63, -4.405e-08
632.63, -4.277e-08
634.63, -3.929e-08
636.64, -3.976e-08
638.64, -4.197e-08
640.64, -4.279e-08
642.64, -4.118e-08
644.64, -4.237e-08
646.65, -4.27e-08
648.65, -4.319e-08
650.65, -4.399e-08
652.65, -4.103e-08
654.65, -3.842e-08
656.66, -4.035e-08
658.66, -4.183e-08
660.66, -4.142e-08
662.66, -3.996e-08
664.66, -4.021e-08
666.67, -3.781e-08
668.67, -3.677e-08
670.67, -4.018e-08
672.67, -3.929e-08
674.67, -4.106e-08
676.68, -3.847e-08
678.68, -3.969e-08
680.68, -3.926e-08
682.68, -4.123e-08
684.68, -3.492e-08
686.69, -3.85e-08
688.69, -3.908e-08
690.69, -3.745e-08
692.69, -3.895e-08
694.69, -3.663e-08
696.7, -3.706e-08
698.7, -3.937e-08
700.7, -3.883e-08
702.7, -3.91e-08
704.7, -3.903e-08
706.71, -4.122e-08
708.71, -4.069e-08
710.71, -4.279e-08
712.71, -4.251e-08
714.71, -4.228e-08
716.72, -4.313e-08
718.72, -4.041e-08
720.72, -3.95e-08
722.72, -4.187e-08
724.72, -4.401e-08
726.73, -4.342e-08
728.73, -4.486e-08
730.73, -4.33e-08
732.73, -4.098e-08
734.73, -4.366e-08
736.74, -4.511e-08
738.74, -4.541e-08
740.74, -4.705e-08
742.74, -4.29e-08
744.74, -4.334e-08
746.75, -4.042e-08
748.75, -4.604e-08
750.75, -4.614e-08
752.75, -4.397e-08
754.75, -4.351e-08
756.76, -4.671e-08
758.76, -4.204e-08
760.76, -4.377e-08
762.76, -4.347e-08
764.76, -4.036e-08
766.77, -4.554e-08
768.77, -4.31e-08
770.77, -4.38e-08
772.77, -4.409e-08
774.77, -4.186e-08
776.78, -3.501e-08
778.78, -3.929e-08
780.78, -4.094e-08
782.78, -4.112e-08
784.78, -3.993e-08
786.79, -3.835e-08
788.79, -4.293e-08
790.79, -4.131e-08
792.79, -4.056e-08
794.79, -4.059e-08
796.8, -4.028e-08
798.8, -4.198e-08
800.8, -4.181e-08
802.8, -4.271e-08
804.8, -3.956e-08
806.81, -3.988e-08
808.81, -3.512e-08
810.81, -3.973e-08
812.81, -4.356e-08
814.81, -4.137e-08
816.82, -4.271e-08
818.82, -4.064e-08
820.82, -3.919e-08
822.82, -4.064e-08
824.82, -4.093e-08
826.83, -4.374e-08
828.83, -4.423e-08
830.83, -4.33e-08
832.83, -4.292e-08
834.83, -3.904e-08
836.84, -3.882e-08
838.84, -4.086e-08
840.84, -4.033e-08
842.84, -4.094e-08
844.84, -4.42e-08
846.85, -4.352e-08
848.85, -4.33e-08
850.85, -4.25e-08
852.85, -4.112e-08
854.85, -4.067e-08
856.86, -3.926e-08
858.86, -4.129e-08
860.86, -4.581e-08
862.86, -4.315e-08
864.86, -4.192e-08
866.87, -4.409e-08
868.87, -4.053e-08
870.87, -4.17e-08
872.87, -4.38e-08
874.87, -4.2e-08
876.88, -4.276e-08
878.88, -4.448e-08
880.88, -4.295e-08
882.88, -3.991e-08
884.88, -4.488e-08
886.89, -3.943e-08
888.89, -4.203e-08
890.89, -4.074e-08
892.89, -4.247e-08
894.89, -4.231e-08
896.9, -3.901e-08
898.9, -4.11e-08
900.9, -4.062e-08
902.9, -4.143e-08
904.9, -4.314e-08
906.91, -3.935e-08
908.91, -4.102e-08
910.91, -4.276e-08
912.91, -4.344e-08
914.91, -3.965e-08
916.92, -4.111e-08
918.92, -4.069e-08
920.92, -3.925e-08
922.92, -3.997e-08
924.92, -4.01e-08
926.93, -3.862e-08
928.93, -3.715e-08
930.93, -3.846e-08
932.93, -3.932e-08
934.93, -3.93e-08
936.94, -3.67e-08
938.94, -3.897e-08
940.94, -3.914e-08
942.94, -3.828e-08
944.94, -3.883e-08
946.95, -3.874e-08
948.95, -4.16e-08
950.95, -4.284e-08
952.95, -4.212e-08
954.95, -3.866e-08
956.96, -3.89e-08
958.96, -4.141e-08
960.96, -3.791e-08
962.96, -3.921e-08
964.96, -3.509e-08
966.97, -3.825e-08
968.97, -3.907e-08
970.97, -4.095e-08
972.97, -4.186e-08
974.97, -4.416e-08
976.98, -4.238e-08
978.98, -4.315e-08
980.98, -4.307e-08
982.98, -4.419e-08
984.98, -4.466e-08
986.99, -4.558e-08
988.99, -4.618e-08
990.99, -4.442e-08
992.99, -4.395e-08
994.99, -4.291e-08
997.0, -4.403e-08
999.0, -4.23e-08
1001.0, -4.298e-08
1003.0, -4.366e-08
1005.0, -4.136e-08
1007.0, -4.049e-08
1009.0, -3.96e-08
1011.0, -4.242e-08
1013.0, -4.227e-08
1015.0, -4.187e-08
1017.0, -4.194e-08
1019.0, -4.085e-08
1021.0, -4.218e-08
1023.0, -4.131e-08
1025.0, -4.423e-08
1027.0, -4.032e-08
1029.0, -4.043e-08
1031.0, -4.185e-08
1033.0, -4.344e-08
1035.0, -3.85e-08
1037.0, -4.087e-08
1039.0, -4.128e-08
1041.0, -4.03e-08
1043.0, -4.087e-08
1045.0, -4.142e-08
1047.0, -4.127e-08
1049.0, -3.881e-08
1051.0, -3.912e-08
1053.1, 2.2249e-06
1055.1, 4.1731e-06
1057.1, 3.9877e-06
1059.1, 4.2955e-06
1061.1, 4.3282e-06
1063.1, 4.372e-06
1065.1, 3.5654e-06
1067.1, 4.3859e-06
1069.1, 4.3257e-06
1071.1, 4.436e-06
1073.1, 4.2776e-06
1075.1, 4.3503e-06
1077.1, 3.4265e-06
1079.1, 4.3292e-06
1081.1, 4.1359e-06
1083.1, 3.8693e-06
1085.1, 4.7422e-06
1087.1, 4.0845e-06
1089.1, 4.5897e-06
1091.1, 4.1697e-06
1093.1, 3.702e-06
1095.1, 3.9224e-06
1097.1, 4.4994e-06
1099.1, 3.7092e-06
1101.1, 4.0209e-06
1103.1, 4.2671e-06
1105.1, 4.4598e-06
1107.1, 4.2619e-06
1109.1, 4.2904e-06
1111.1, 4.5477e-06
1113.1, 3.9134e-06
1115.1, 4.3591e-06
1117.1, 3.8853e-06
1119.1, 4.1655e-06
1121.1, 4.1082e-06
1123.1, 4.1786e-06
1125.1, 4.0782e-06
1127.1, 4.1814e-06
1129.1, 4.277e-06
1131.1, 4.3985e-06
1133.1, 4.5134e-06
1135.1, 4.4395e-06
1137.1, 3.9207e-06
1139.1, 4.3828e-06
1141.1, 4.3726e-06
1143.1, 4.465e-06
1145.1, 3.9437e-06
1147.1, 4.3955e-06
1149.1, 4.0288e-06
1151.1, 4.2414e-06
1153.2, 4.4841e-06
1155.2, 4.4317e-06
1157.2, 4.2219e-06
1159.2, 3.8215e-06
1161.2, 4.5847e-06
1163.2, 4.4385e-06
1165.2, 4.3616e-06
1167.2, 4.417e-06
1169.2, 4.2694e-06
1171.2, 3.8662e-06
1173.2, 4.1833e-06
1175.2, 4.4801e-06
1177.2, 4.1862e-06
1179.2, 4.3144e-06
1181.2, 4.2315e-06
1183.2, 4.6457e-06
1185.2, 4.0921e-06
1187.2, 4.2595e-06
1189.2, 4.4326e-06
1191.2, 4.2306e-06
1193.2, 4.2886e-06
1195.2, 4.4608e-06
1197.2, 4.441e-06
1199.2, 4.2277e-06
1201.2, 4.4448e-06
1203.2, 4.1985e-06
1205.2, 4.7043e-06
1207.2, 4.1195e-06
1209.2, 4.2612e-06
1211.2, 4.2026e-06
1213.2, 4.8019e-06
1215.2, 4.0976e-06
1217.2, 4.5152e-06
1219.2, 4.6855e-06
1221.2, 4.4251e-06
1223.2, 4.273e-06
1225.2, 4.5531e-06
1227.2, 4.4643e-06
1229.2, 4.694e-06
1231.2, 4.7715e-06
1233.2, 3.821e-06
1235.2, 4.2233e-06
1237.2, 3.8153e-06
1239.2, 4.3796e-06
1241.2, 4.6408e-06
1243.2, 4.5276e-06
1245.2, 4.5136e-06
1247.2, 4.5381e-06
1249.2, 4.3439e-06
1251.2, 4.1701e-06
1253.3, 4.8207e-06
1255.3, 4.5292e-06
1257.3, 4.5777e-06
1259.3, 4.2031e-06
1261.3, 4.563e-06
1263.3, 4.6571e-06
1265.3, 4.0989e-06
1267.3, 4.5234e-06
1269.3, 4.6047e-06
1271.3, 4.423e-06
1273.3, 4.5669e-06
1275.3, 4.4572e-06
1277.3, 4.4307e-06
1279.3, 4.5239e-06
1281.3, 4.6478e-06
1283.3, 4.263e-06
1285.3, 4.3805e-06
1287.3, 4.4582e-06
1289.3, 4.5592e-06
1291.3, 4.478e-06
1293.3, 4.3259e-06
1295.3, 4.185e-06
1297.3, 4.3119e-06
1299.3, 4.1989e-06
1301.3, 4.5263e-06
1303.3, 4.5832e-06
1305.3, 4.3474e-06
1307.3, 4.4579e-06
1309.3, 4.1941e-06
1311.3, 4.2755e-06
1313.3, 4.1401e-06
1315.3, 4.392e-06
1317.3, 3.7224e-06
1319.3, 4.4382e-06
1321.3, 4.1554e-06
1323.3, 4.1357e-06
1325.3, 4.2252e-06
1327.3, 4.7256e-06
1329.3, 4.4921e-06
1331.3, 4.138e-06
1333.3, 4.552e-06
1335.3, 4.4236e-06
1337.3, 4.0992e-06
1339.3, 4.3731e-06
1341.3, 4.6053e-06
1343.3, 4.4312e-06
1345.3, 4.1892e-06
1347.3, 4.5136e-06
1349.3, 4.5789e-06
1351.3, 4.1628e-06
1353.4, 4.3961e-06
1355.4, 4.3897e-06
1357.4, 4.1977e-06
1359.4, 4.4507e-06
1361.4, 4.574e-06
1363.4, 4.5954e-06
1365.4, 4.6575e-06
1367.4, 4.4115e-06
1369.4, 4.4159e-06
1371.4, 4.4273e-06
1373.4, 4.7889e-06
1375.4, 4.4615e-06
1377.4, 4.5246e-06
1379.4, 4.2357e-06
1381.4, 4.5878e-06
1383.4, 4.7034e-06
1385.4, 4.5314e-06
1387.4, 4.4263e-06
1389.4, 4.5849e-06
1391.4, 4.2797e-06
1393.4, 4.6981e-06
1395.4, 4.4919e-06
1397.4, 4.603e-06
1399.4, 4.7061e-06
1401.4, 4.3778e-06
1403.4, 4.206e-06
1405.4, 4.5531e-06
1407.4, 4.4681e-06
1409.4, 4.4333e-06
1411.4, 4.0715e-06
1413.4, 4.3011e-06
1415.4, 4.5084e-06
1417.4, 4.2206e-06
1419.4, 4.5793e-06
1421.4, 4.6295e-06
1423.4, 4.7214e-06
1425.4, 4.2471e-06
1427.4, 4.5173e-06
1429.4, 4.5853e-06
1431.4, 4.5417e-06
1433.4, 4.2911e-06
1435.4, 4.4314e-06
1437.4, 4.4356e-06
1439.4, 4.4039e-06
1441.4, 4.3499e-06
1443.4, 4.3968e-06
1445.4, 4.5042e-06
1447.4, 4.8898e-06
1449.4, 4.3598e-06
1451.4, 4.4765e-06
1453.5, 4.4181e-06
1455.5, 4.4696e-06
1457.5, 4.6358e-06
1459.5, 4.4241e-06
1461.5, 4.7587e-06
1463.5, 4.2283e-06
1465.5, 4.7412e-06
1467.5, 4.3244e-06
1469.5, 4.4129e-06
1471.5, 4.5318e-06
1473.5, 4.7481e-06
1475.5, 4.3672e-06
1477.5, 4.153e-06
1479.5, 4.2989e-06
1481.5, 4.7134e-06
1483.5, 4.2544e-06
1485.5, 4.4848e-06
1487.5, 3.787e-06
1489.5, 4.2119e-06
1491.5, 4.3603e-06
1493.5, 4.6696e-06
1495.5, 4.4747e-06
1497.5, 4.6516e-06
1499.5, 4.3818e-06
1501.5, 4.4546e-06
1503.5, 4.3626e-06
1505.5, 4.5226e-06
1507.5, 4.6714e-06
1509.5, 4.5566e-06
1511.5, 4.4091e-06
1513.5, 4.5463e-06
1515.5, 4.1863e-06
1517.5, 4.2213e-06
1519.5, 4.3581e-06
1521.5, 4.6914e-06
1523.5, 4.707e-06
1525.5, 4.7073e-06
1527.5, 4.4808e-06
1529.5, 4.424e-06
1531.5, 4.2884e-06
1533.5, 4.3691e-06
1535.5, 4.6422e-06
1537.5, 4.7977e-06
1539.5, 4.533e-06
1541.5, 4.2629e-06
1543.5, 4.4663e-06
1545.5, 4.3347e-06
1547.5, 4.334e-06
1549.5, 4.5945e-06
1551.5, 4.3651e-06
1553.6, 4.7025e-06
1555.6, 4.2795e-06
1557.6, 4.6541e-06
1559.6, 4.4416e-06
1561.6, 4.5443e-06
1563.6, 4.4163e-06
1565.6, 4.843e-06
1567.6, 4.4643e-06
1569.6, 4.6551e-06
1571.6, 4.1825e-06
1573.6, 4.504e-06
1575.6, 4.3811e-06
1577.6, 4.3021e-06
1579.6, 3.9828e-06
1581.6, 4.3869e-06
1583.6, 4.3446e-06
1585.6, 4.3474e-06
1587.6, 4.4824e-06
1589.6, 4.0818e-06
1591.6, 4.4982e-06
1593.6, 4.6975e-06
1595.6, 3.8266e-06
1597.6, 4.6466e-06
1599.6, 4.4425e-06
1601.6, 4.29e-06
1603.6, 4.5756e-06
1605.6, 4.6341e-06
1607.6, 4.2752e-06
1609.6, 4.6637e-06
1611.6, 4.7431e-06
1613.6, 4.2225e-06
1615.6, 4.6133e-06
1617.6, 4.4539e-06
1619.6, 4.5794e-06
1621.6, 4.3012e-06
1623.6, 4.5832e-06
1625.6, 4.3389e-06
1627.6, 4.5092e-06
1629.6, 4.6148e-06
1631.6, 4.492e-06
1633.6, 4.5238e-06
1635.6, 4.2896e-06
1637.6, 4.6518e-06
1639.6, 4.6043e-06
1641.6, 4.5834e-06
1643.6, 4.2654e-06
1645.6, 4.395e-06
1647.6, 4.3793e-06
1649.6, 4.456e-06
1651.6, 4.0312e-06
1653.7, 4.3999e-06
1655.7, 4.6976e-06
1657.7, 4.6625e-06
1659.7, 4.4802e-06
1661.7, 4.3407e-06
1663.7, 4.5616e-06
1665.7, 4.4091e-06
1667.7, 4.1232e-06
1669.7, 4.3754e-06
1671.7, 4.3444e-06
1673.7, 4.544e-06
1675.7, 4.5835e-06
1677.7, 4.7896e-06
1679.7, 4.2482e-06
1681.7, 4.8097e-06
1683.7, 4.6995e-06
1685.7, 4.4381e-06
1687.7, 4.4854e-06
1689.7, 4.47e-06
1691.7, 4.2398e-06
1693.7, 4.4824e-06
1695.7, 4.2497e-06
1697.7, 4.4088e-06
1699.7, 4.5145e-06
1701.7, 4.459e-06
1703.7, 4.2902e-06
1705.7, 4.2569e-06
1707.7, 4.4617e-06
1709.7, 4.7745e-06
1711.7, 4.3484e-06
1713.7, 4.7345e-06
1715.7, 4.5794e-06
1717.7, 4.4417e-06
1719.7, 4.4283e-06
1721.7, 4.4377e-06
1723.7, 4.0466e-06
1725.7, 4.4163e-06
1727.7, 4.4762e-06
1729.7, 4.3849e-06
1731.7, 4.288e-06
1733.7, 4.0863e-06
1735.7, 4.4879e-06
1737.7, 4.5673e-06
1739.7, 4.0132e-06
1741.7, 4.6982e-06
1743.7, 4.4347e-06
1745.7, 4.327e-06
1747.7, 4.4762e-06
1749.7, 4.6944e-06
1751.7, 4.3512e-06
1753.8, 4.5595e-06
1755.8, 4.3003e-06
1757.8, 4.2087e-06
1759.8, 4.497e-06
1761.8, 4.5827e-06
1763.8, 4.5469e-06
1765.8, 4.3493e-06
1767.8, 4.4977e-06
1769.8, 4.7255e-06
1771.8, 4.4223e-06
1773.8, 3.9288e-06
1775.8, 4.5918e-06
1777.8, 4.4336e-06
1779.8, 4.5017e-06
1781.8, 4.6195e-06
1783.8, 4.331e-06
1785.8, 4.4961e-06
1787.8, 4.5996e-06
1789.8, 4.2804e-06
1791.8, 4.4221e-06
1793.8, 4.7779e-06
1795.8, 4.3928e-06
1797.8, 4.6214e-06
1799.8, 4.4861e-06
1801.8, 4.3703e-06
1803.8, 4.4834e-06
1805.8, 4.1363e-06
1807.8, 4.5083e-06
1809.8, 3.9162e-06
1811.8, 4.3765e-06
1813.8, 4.6593e-06
1815.8, 4.4925e-06
1817.8, 4.3703e-06
1819.8, 4.5816e-06
1821.8, 4.5067e-06
1823.8, 4.3787e-06
1825.8, 4.8467e-06
1827.8, 4.6775e-06
1829.8, 4.3909e-06
1831.8, 4.7659e-06
1833.8, 4.6616e-06
1835.8, 4.5372e-06
1837.8, 4.1869e-06
1839.8, 4.6871e-06
1841.8, 4.4131e-06
1843.8, 4.6948e-06
1845.8, 4.496e-06
1847.8, 4.6124e-06
1849.8, 4.5169e-06
1851.8, 4.4926e-06
1853.9, 4.3419e-06
1855.9, 4.7784e-06
1857.9, 4.7041e-06
1859.9, 4.2847e-06
1861.9, 4.813e-06
1863.9, 4.6378e-06
1865.9, 4.531e-06
1867.9, 4.603e-06
1869.9, 4.5638e-06
1871.9, 4.6599e-06
1873.9, 4.3796e-06
1875.9, 4.6362e-06
1877.9, 4.064e-06
1879.9, 4.4751e-06
1881.9, 4.1507e-06
1883.9, 4.4754e-06
1885.9, 4.6036e-06
1887.9, 4.7403e-06
1889.9, 4.4199e-06
1891.9, 4.5471e-06
1893.9, 4.5086e-06
1895.9, 4.4667e-06
1897.9, 4.1247e-06
1899.9, 4.1622e-06
1901.9, 4.7796e-06
1903.9, 4.0759e-06
1905.9, 4.3508e-06
1907.9, 4.4942e-06
1909.9, 4.6026e-06
1911.9, 4.8769e-06
1913.9, 4.6616e-06
1915.9, 4.7634e-06
1917.9, 4.3517e-06
1919.9, 4.5252e-06
1921.9, 4.6999e-06
1923.9, 4.2809e-06
1925.9, 4.825e-06
1927.9, 4.4909e-06
1929.9, 4.465e-06
1931.9, 4.7032e-06
1933.9, 4.427e-06
1935.9, 4.7357e-06
1937.9, 4.6693e-06
1939.9, 4.3621e-06
1941.9, 4.4692e-06
1943.9, 4.7191e-06
1945.9, 4.3611e-06
1947.9, 4.4075e-06
1949.9, 4.705e-06
1951.9, 4.717e-06
1954.0, 4.4789e-06
1956.0, 4.1038e-06
1958.0, 4.4047e-06
1960.0, 4.4606e-06
1962.0, 4.6912e-06
1964.0, 4.6018e-06
1966.0, 4.2528e-06
1968.0, 4.3298e-06
1970.0, 4.5844e-06
1972.0, 3.9549e-06
1974.0, 4.5609e-06
1976.0, 4.3365e-06
1978.0, 4.771e-06
1980.0, 4.4761e-06
1982.0, 4.4603e-06
1984.0, 4.6596e-06
1986.0, 4.2686e-06
1988.0, 4.5669e-06
1990.0, 4.4644e-06
1992.0, 4.5381e-06
1994.0, 4.3442e-06
1996.0, 4.6141e-06
1998.0, 4.3646e-06
2000.0, 4.5197e-06
2002.0, 4.7404e-06
2004.0, 4.6031e-06
2006.0, 4.5064e-06
2008.0, 4.3368e-06
2010.0, 4.3999e-06
2012.0, 4.2524e-06
2014.0, 4.3232e-06
